3/04/2024,2:39:49 PM
Software,STS IL/PDL,IL,Normal,1.3.3.0
TSL,SANTEC,TSL-570,23020004,0022.0017.0009
PowerMeter,SANTEC,MPM-210H,23020023,Ver.1.19
,Module0,MPM-211,23020025M211,Ver.1.22
Power Monitor,DAQ
Start,1600,nm
Stop,1680,nm
Step,0.01,nm
Speed,20,nm/s
Source Power,10,dBm
Averaging Time,0.5,msec
Power meter range,23020025M211,(Ch1),-30～+10dBm,-40～ 0dBm
--HEADER END--
--DATA START--
Wavelength(nm),IL_M1_S0_CH1
1600,-0.08427
1600.01,-0.08496
1600.02,-0.08476
1600.03,-0.08519
1600.04,-0.08503
1600.05,-0.08429
1600.06,-0.0852
1600.07,-0.08474
1600.08,-0.08491
1600.09,-0.0842
1600.1,-0.08509
1600.11,-0.08515
1600.12,-0.08477
1600.13,-0.08488
1600.14,-0.08519
1600.15,-0.0851
1600.16,-0.08505
1600.17,-0.08497
1600.18,-0.08441
1600.19,-0.08513
1600.2,-0.08503
1600.21,-0.0849
1600.22,-0.08382
1600.23,-0.08567
1600.24,-0.08418
1600.25,-0.08568
1600.26,-0.08466
1600.27,-0.0852
1600.28,-0.08517
1600.29,-0.08469
1600.3,-0.08516
1600.31,-0.08514
1600.32,-0.08505
1600.33,-0.08519
1600.34,-0.08518
1600.35,-0.08566
1600.36,-0.0845
1600.37,-0.08499
1600.38,-0.0853
1600.39,-0.08516
1600.4,-0.08531
1600.41,-0.0851
1600.42,-0.08516
1600.43,-0.08568
1600.44,-0.08537
1600.45,-0.08506
1600.46,-0.08554
1600.47,-0.08522
1600.48,-0.0856
1600.49,-0.08569
1600.5,-0.08542
1600.51,-0.08572
1600.52,-0.08563
1600.53,-0.08524
1600.54,-0.08506
1600.55,-0.08575
1600.56,-0.08571
1600.57,-0.08562
1600.58,-0.08559
1600.59,-0.0862
1600.6,-0.0856
1600.61,-0.08579
1600.62,-0.0857
1600.63,-0.08599
1600.64,-0.08522
1600.65,-0.08599
1600.66,-0.08574
1600.67,-0.08578
1600.68,-0.08586
1600.69,-0.08566
1600.7,-0.08531
1600.71,-0.08678
1600.72,-0.08543
1600.73,-0.08575
1600.74,-0.08527
1600.75,-0.08606
1600.76,-0.08566
1600.77,-0.08541
1600.78,-0.08616
1600.79,-0.08558
1600.8,-0.08568
1600.81,-0.08568
1600.82,-0.08626
1600.83,-0.08521
1600.84,-0.08604
1600.85,-0.08534
1600.86,-0.0855
1600.87,-0.08531
1600.88,-0.08591
1600.89,-0.08538
1600.9,-0.08589
1600.91,-0.08622
1600.92,-0.08512
1600.93,-0.08582
1600.94,-0.08576
1600.95,-0.08606
1600.96,-0.08547
1600.97,-0.08587
1600.98,-0.08542
1600.99,-0.08575
1601,-0.08583
1601.01,-0.08572
1601.02,-0.08537
1601.03,-0.08609
1601.04,-0.08564
1601.05,-0.08548
1601.06,-0.08547
1601.07,-0.0856
1601.08,-0.08529
1601.09,-0.08543
1601.1,-0.08579
1601.11,-0.0855
1601.12,-0.08607
1601.13,-0.08545
1601.14,-0.08576
1601.15,-0.08534
1601.16,-0.08575
1601.17,-0.0853
1601.18,-0.08571
1601.19,-0.0858
1601.2,-0.08577
1601.21,-0.08531
1601.22,-0.08565
1601.23,-0.08622
1601.24,-0.08578
1601.25,-0.08613
1601.26,-0.08513
1601.27,-0.08606
1601.28,-0.08575
1601.29,-0.08553
1601.3,-0.0856
1601.31,-0.08559
1601.32,-0.08545
1601.33,-0.08629
1601.34,-0.0861
1601.35,-0.0855
1601.36,-0.0858
1601.37,-0.08629
1601.38,-0.0857
1601.39,-0.08573
1601.4,-0.08599
1601.41,-0.08565
1601.42,-0.08548
1601.43,-0.08554
1601.44,-0.08627
1601.45,-0.08546
1601.46,-0.08621
1601.47,-0.08598
1601.48,-0.08627
1601.49,-0.08611
1601.5,-0.08568
1601.51,-0.08618
1601.52,-0.08596
1601.53,-0.08618
1601.54,-0.08579
1601.55,-0.0862
1601.56,-0.08594
1601.57,-0.08623
1601.58,-0.08584
1601.59,-0.08619
1601.6,-0.08582
1601.61,-0.08633
1601.62,-0.08601
1601.63,-0.0861
1601.64,-0.08616
1601.65,-0.08627
1601.66,-0.08637
1601.67,-0.08569
1601.68,-0.08655
1601.69,-0.08607
1601.7,-0.08656
1601.71,-0.08607
1601.72,-0.08611
1601.73,-0.08657
1601.74,-0.08635
1601.75,-0.08612
1601.76,-0.08615
1601.77,-0.08677
1601.78,-0.08624
1601.79,-0.08648
1601.8,-0.08647
1601.81,-0.08699
1601.82,-0.08664
1601.83,-0.08662
1601.84,-0.08652
1601.85,-0.08697
1601.86,-0.08634
1601.87,-0.08667
1601.88,-0.08681
1601.89,-0.08675
1601.9,-0.08649
1601.91,-0.08684
1601.92,-0.08688
1601.93,-0.08702
1601.94,-0.08732
1601.95,-0.0867
1601.96,-0.08651
1601.97,-0.08661
1601.98,-0.08694
1601.99,-0.08618
1602,-0.08664
1602.01,-0.0868
1602.02,-0.08678
1602.03,-0.08627
1602.04,-0.0872
1602.05,-0.08679
1602.06,-0.08685
1602.07,-0.08678
1602.08,-0.08654
1602.09,-0.0871
1602.1,-0.08683
1602.11,-0.08694
1602.12,-0.08641
1602.13,-0.08715
1602.14,-0.08627
1602.15,-0.08693
1602.16,-0.08703
1602.17,-0.08669
1602.18,-0.08672
1602.19,-0.0869
1602.2,-0.08683
1602.21,-0.08656
1602.22,-0.08683
1602.23,-0.08699
1602.24,-0.08662
1602.25,-0.08734
1602.26,-0.08664
1602.27,-0.08641
1602.28,-0.08698
1602.29,-0.08683
1602.3,-0.08645
1602.31,-0.08716
1602.32,-0.08663
1602.33,-0.0867
1602.34,-0.08697
1602.35,-0.08689
1602.36,-0.0861
1602.37,-0.08685
1602.38,-0.08728
1602.39,-0.08674
1602.4,-0.08661
1602.41,-0.0865
1602.42,-0.08658
1602.43,-0.08649
1602.44,-0.08686
1602.45,-0.08671
1602.46,-0.08645
1602.47,-0.08697
1602.48,-0.08655
1602.49,-0.08637
1602.5,-0.08664
1602.51,-0.08665
1602.52,-0.08671
1602.53,-0.08606
1602.54,-0.0865
1602.55,-0.08689
1602.56,-0.0866
1602.57,-0.08711
1602.58,-0.08678
1602.59,-0.08681
1602.6,-0.08711
1602.61,-0.08648
1602.62,-0.08722
1602.63,-0.08703
1602.64,-0.08676
1602.65,-0.08657
1602.66,-0.08643
1602.67,-0.08684
1602.68,-0.08615
1602.69,-0.08738
1602.7,-0.08647
1602.71,-0.08729
1602.72,-0.08696
1602.73,-0.08663
1602.74,-0.08735
1602.75,-0.08668
1602.76,-0.08687
1602.77,-0.08645
1602.78,-0.08681
1602.79,-0.08665
1602.8,-0.08712
1602.81,-0.08663
1602.82,-0.08715
1602.83,-0.08695
1602.84,-0.08648
1602.85,-0.08697
1602.86,-0.08721
1602.87,-0.08666
1602.88,-0.08716
1602.89,-0.08731
1602.9,-0.08681
1602.91,-0.08689
1602.92,-0.08718
1602.93,-0.08715
1602.94,-0.08666
1602.95,-0.08674
1602.96,-0.08661
1602.97,-0.08799
1602.98,-0.08534
1602.99,-0.08811
1603,-0.08659
1603.01,-0.08679
1603.02,-0.08652
1603.03,-0.08709
1603.04,-0.08713
1603.05,-0.08684
1603.06,-0.08712
1603.07,-0.087
1603.08,-0.08696
1603.09,-0.08681
1603.1,-0.08707
1603.11,-0.08706
1603.12,-0.08689
1603.13,-0.08726
1603.14,-0.08716
1603.15,-0.08718
1603.16,-0.08721
1603.17,-0.08681
1603.18,-0.08713
1603.19,-0.08652
1603.2,-0.08666
1603.21,-0.08755
1603.22,-0.08721
1603.23,-0.08686
1603.24,-0.08682
1603.25,-0.08709
1603.26,-0.08733
1603.27,-0.08651
1603.28,-0.08743
1603.29,-0.08685
1603.3,-0.08744
1603.31,-0.08664
1603.32,-0.08679
1603.33,-0.08716
1603.34,-0.08736
1603.35,-0.08676
1603.36,-0.08732
1603.37,-0.08691
1603.38,-0.08659
1603.39,-0.08709
1603.4,-0.08699
1603.41,-0.08696
1603.42,-0.08719
1603.43,-0.08718
1603.44,-0.08713
1603.45,-0.08761
1603.46,-0.08527
1603.47,-0.08763
1603.48,-0.08724
1603.49,-0.08713
1603.5,-0.08706
1603.51,-0.08705
1603.52,-0.08691
1603.53,-0.08687
1603.54,-0.08642
1603.55,-0.08687
1603.56,-0.08749
1603.57,-0.08677
1603.58,-0.08716
1603.59,-0.08656
1603.6,-0.08714
1603.61,-0.08674
1603.62,-0.0871
1603.63,-0.08706
1603.64,-0.08644
1603.65,-0.08702
1603.66,-0.08689
1603.67,-0.08681
1603.68,-0.087
1603.69,-0.08707
1603.7,-0.08702
1603.71,-0.08721
1603.72,-0.08706
1603.73,-0.08661
1603.74,-0.08724
1603.75,-0.0868
1603.76,-0.08719
1603.77,-0.08668
1603.78,-0.08712
1603.79,-0.08709
1603.8,-0.08711
1603.81,-0.08679
1603.82,-0.08715
1603.83,-0.0866
1603.84,-0.08686
1603.85,-0.08651
1603.86,-0.08654
1603.87,-0.08669
1603.88,-0.08672
1603.89,-0.08677
1603.9,-0.0867
1603.91,-0.08693
1603.92,-0.08656
1603.93,-0.0868
1603.94,-0.08655
1603.95,-0.08726
1603.96,-0.087
1603.97,-0.08691
1603.98,-0.08654
1603.99,-0.08697
1604,-0.08666
1604.01,-0.08708
1604.02,-0.08635
1604.03,-0.0867
1604.04,-0.08696
1604.05,-0.087
1604.06,-0.08692
1604.07,-0.08702
1604.08,-0.08667
1604.09,-0.08638
1604.1,-0.08721
1604.11,-0.08698
1604.12,-0.08648
1604.13,-0.08721
1604.14,-0.08707
1604.15,-0.08687
1604.16,-0.08652
1604.17,-0.08724
1604.18,-0.08674
1604.19,-0.08718
1604.2,-0.08642
1604.21,-0.08669
1604.22,-0.08656
1604.23,-0.08667
1604.24,-0.08676
1604.25,-0.08702
1604.26,-0.08684
1604.27,-0.08703
1604.28,-0.08727
1604.29,-0.08698
1604.3,-0.08745
1604.31,-0.08694
1604.32,-0.08714
1604.33,-0.08699
1604.34,-0.08719
1604.35,-0.08709
1604.36,-0.08742
1604.37,-0.08773
1604.38,-0.08702
1604.39,-0.08739
1604.4,-0.08709
1604.41,-0.08743
1604.42,-0.08731
1604.43,-0.08704
1604.44,-0.08697
1604.45,-0.08686
1604.46,-0.08701
1604.47,-0.08717
1604.48,-0.08721
1604.49,-0.08714
1604.5,-0.08753
1604.51,-0.08688
1604.52,-0.08725
1604.53,-0.08719
1604.54,-0.08727
1604.55,-0.08684
1604.56,-0.08743
1604.57,-0.08662
1604.58,-0.08742
1604.59,-0.08682
1604.6,-0.08737
1604.61,-0.087
1604.62,-0.08775
1604.63,-0.08629
1604.64,-0.08752
1604.65,-0.0865
1604.66,-0.0871
1604.67,-0.08706
1604.68,-0.08742
1604.69,-0.08741
1604.7,-0.08689
1604.71,-0.08753
1604.72,-0.0873
1604.73,-0.08731
1604.74,-0.08716
1604.75,-0.08742
1604.76,-0.08672
1604.77,-0.08747
1604.78,-0.08631
1604.79,-0.08757
1604.8,-0.08759
1604.81,-0.08735
1604.82,-0.08707
1604.83,-0.08726
1604.84,-0.0871
1604.85,-0.08767
1604.86,-0.08728
1604.87,-0.08796
1604.88,-0.08729
1604.89,-0.08735
1604.9,-0.08684
1604.91,-0.0874
1604.92,-0.08761
1604.93,-0.08744
1604.94,-0.08757
1604.95,-0.08733
1604.96,-0.08782
1604.97,-0.08732
1604.98,-0.08733
1604.99,-0.08718
1605,-0.08777
1605.01,-0.08712
1605.02,-0.0878
1605.03,-0.08705
1605.04,-0.08783
1605.05,-0.08782
1605.06,-0.08745
1605.07,-0.08767
1605.08,-0.08726
1605.09,-0.0877
1605.1,-0.0866
1605.11,-0.08791
1605.12,-0.08739
1605.13,-0.08781
1605.14,-0.08734
1605.15,-0.08811
1605.16,-0.08737
1605.17,-0.08785
1605.18,-0.08754
1605.19,-0.08788
1605.2,-0.08717
1605.21,-0.08721
1605.22,-0.08876
1605.23,-0.08696
1605.24,-0.08791
1605.25,-0.08764
1605.26,-0.08752
1605.27,-0.0878
1605.28,-0.08795
1605.29,-0.0871
1605.3,-0.0879
1605.31,-0.08691
1605.32,-0.08751
1605.33,-0.08701
1605.34,-0.08843
1605.35,-0.08677
1605.36,-0.08782
1605.37,-0.08754
1605.38,-0.08785
1605.39,-0.08785
1605.4,-0.08727
1605.41,-0.08791
1605.42,-0.08731
1605.43,-0.08767
1605.44,-0.08692
1605.45,-0.08718
1605.46,-0.08661
1605.47,-0.0888
1605.48,-0.08681
1605.49,-0.08785
1605.5,-0.08759
1605.51,-0.08767
1605.52,-0.08768
1605.53,-0.08766
1605.54,-0.08777
1605.55,-0.08733
1605.56,-0.08759
1605.57,-0.08743
1605.58,-0.08772
1605.59,-0.0875
1605.6,-0.08772
1605.61,-0.0878
1605.62,-0.08866
1605.63,-0.08704
1605.64,-0.08775
1605.65,-0.08743
1605.66,-0.08804
1605.67,-0.08724
1605.68,-0.088
1605.69,-0.08756
1605.7,-0.08783
1605.71,-0.0872
1605.72,-0.08716
1605.73,-0.08771
1605.74,-0.08817
1605.75,-0.08788
1605.76,-0.08784
1605.77,-0.08734
1605.78,-0.08818
1605.79,-0.08711
1605.8,-0.08769
1605.81,-0.08799
1605.82,-0.08778
1605.83,-0.08813
1605.84,-0.0879
1605.85,-0.08773
1605.86,-0.08817
1605.87,-0.08791
1605.88,-0.08778
1605.89,-0.08738
1605.9,-0.08788
1605.91,-0.08745
1605.92,-0.08816
1605.93,-0.08801
1605.94,-0.08835
1605.95,-0.08843
1605.96,-0.08883
1605.97,-0.08715
1605.98,-0.08921
1605.99,-0.08773
1606,-0.08898
1606.01,-0.08882
1606.02,-0.08833
1606.03,-0.08886
1606.04,-0.08893
1606.05,-0.08855
1606.06,-0.08867
1606.07,-0.0887
1606.08,-0.08847
1606.09,-0.0892
1606.1,-0.08846
1606.11,-0.08847
1606.12,-0.08853
1606.13,-0.08882
1606.14,-0.08888
1606.15,-0.08908
1606.16,-0.08892
1606.17,-0.08959
1606.18,-0.08886
1606.19,-0.08945
1606.2,-0.08902
1606.21,-0.08893
1606.22,-0.08899
1606.23,-0.08927
1606.24,-0.08928
1606.25,-0.08861
1606.26,-0.08934
1606.27,-0.08972
1606.28,-0.08949
1606.29,-0.08942
1606.3,-0.08924
1606.31,-0.08908
1606.32,-0.09002
1606.33,-0.0896
1606.34,-0.08935
1606.35,-0.08896
1606.36,-0.08954
1606.37,-0.08917
1606.38,-0.08949
1606.39,-0.08959
1606.4,-0.08858
1606.41,-0.08962
1606.42,-0.08943
1606.43,-0.0894
1606.44,-0.08921
1606.45,-0.08956
1606.46,-0.08945
1606.47,-0.08865
1606.48,-0.08976
1606.49,-0.08929
1606.5,-0.0894
1606.51,-0.08947
1606.52,-0.08959
1606.53,-0.08917
1606.54,-0.08943
1606.55,-0.08972
1606.56,-0.08932
1606.57,-0.08978
1606.58,-0.08953
1606.59,-0.08997
1606.6,-0.08993
1606.61,-0.0899
1606.62,-0.08991
1606.63,-0.08991
1606.64,-0.08842
1606.65,-0.08916
1606.66,-0.08908
1606.67,-0.08972
1606.68,-0.08912
1606.69,-0.08915
1606.7,-0.09027
1606.71,-0.08948
1606.72,-0.08876
1606.73,-0.08987
1606.74,-0.08914
1606.75,-0.08976
1606.76,-0.08951
1606.77,-0.08938
1606.78,-0.08918
1606.79,-0.08938
1606.8,-0.08923
1606.81,-0.08926
1606.82,-0.08949
1606.83,-0.08952
1606.84,-0.08921
1606.85,-0.08963
1606.86,-0.08928
1606.87,-0.08945
1606.88,-0.08903
1606.89,-0.0891
1606.9,-0.08974
1606.91,-0.08874
1606.92,-0.08974
1606.93,-0.08887
1606.94,-0.08986
1606.95,-0.08928
1606.96,-0.08977
1606.97,-0.0894
1606.98,-0.08922
1606.99,-0.0893
1607,-0.08923
1607.01,-0.08927
1607.02,-0.08912
1607.03,-0.08884
1607.04,-0.08905
1607.05,-0.08963
1607.06,-0.08878
1607.07,-0.08982
1607.08,-0.08909
1607.09,-0.08977
1607.1,-0.08958
1607.11,-0.08935
1607.12,-0.08909
1607.13,-0.08933
1607.14,-0.08935
1607.15,-0.08947
1607.16,-0.08961
1607.17,-0.08912
1607.18,-0.09002
1607.19,-0.08913
1607.2,-0.08997
1607.21,-0.08928
1607.22,-0.08975
1607.23,-0.08949
1607.24,-0.08965
1607.25,-0.08969
1607.26,-0.08962
1607.27,-0.08958
1607.28,-0.08942
1607.29,-0.08949
1607.3,-0.08944
1607.31,-0.0893
1607.32,-0.08986
1607.33,-0.08986
1607.34,-0.08907
1607.35,-0.08973
1607.36,-0.08972
1607.37,-0.08999
1607.38,-0.08934
1607.39,-0.08989
1607.4,-0.08993
1607.41,-0.0898
1607.42,-0.09024
1607.43,-0.08981
1607.44,-0.08995
1607.45,-0.08977
1607.46,-0.09006
1607.47,-0.08923
1607.48,-0.09006
1607.49,-0.09033
1607.5,-0.0895
1607.51,-0.09026
1607.52,-0.09002
1607.53,-0.09014
1607.54,-0.09011
1607.55,-0.09037
1607.56,-0.08997
1607.57,-0.08949
1607.58,-0.09049
1607.59,-0.08985
1607.6,-0.09015
1607.61,-0.09009
1607.62,-0.09024
1607.63,-0.08976
1607.64,-0.0906
1607.65,-0.09005
1607.66,-0.09002
1607.67,-0.08966
1607.68,-0.09026
1607.69,-0.09021
1607.7,-0.09016
1607.71,-0.09056
1607.72,-0.09045
1607.73,-0.08967
1607.74,-0.0903
1607.75,-0.09001
1607.76,-0.09074
1607.77,-0.08992
1607.78,-0.08992
1607.79,-0.0903
1607.8,-0.08956
1607.81,-0.0902
1607.82,-0.09018
1607.83,-0.09027
1607.84,-0.08968
1607.85,-0.09009
1607.86,-0.09012
1607.87,-0.09018
1607.88,-0.0905
1607.89,-0.09002
1607.9,-0.08985
1607.91,-0.09019
1607.92,-0.08978
1607.93,-0.08999
1607.94,-0.08986
1607.95,-0.09034
1607.96,-0.0903
1607.97,-0.09017
1607.98,-0.09037
1607.99,-0.08984
1608,-0.09021
1608.01,-0.09023
1608.02,-0.09012
1608.03,-0.08999
1608.04,-0.09021
1608.05,-0.0903
1608.06,-0.08963
1608.07,-0.09022
1608.08,-0.09028
1608.09,-0.08987
1608.1,-0.09016
1608.11,-0.08972
1608.12,-0.09016
1608.13,-0.08995
1608.14,-0.08968
1608.15,-0.08989
1608.16,-0.0901
1608.17,-0.08993
1608.18,-0.09003
1608.19,-0.09034
1608.2,-0.09009
1608.21,-0.09033
1608.22,-0.0899
1608.23,-0.09017
1608.24,-0.0895
1608.25,-0.0905
1608.26,-0.08938
1608.27,-0.08992
1608.28,-0.09021
1608.29,-0.09015
1608.3,-0.08998
1608.31,-0.09047
1608.32,-0.09021
1608.33,-0.09053
1608.34,-0.08981
1608.35,-0.09061
1608.36,-0.09034
1608.37,-0.08992
1608.38,-0.09052
1608.39,-0.08975
1608.4,-0.09031
1608.41,-0.09008
1608.42,-0.09031
1608.43,-0.08986
1608.44,-0.09029
1608.45,-0.09061
1608.46,-0.09001
1608.47,-0.09046
1608.48,-0.09049
1608.49,-0.09023
1608.5,-0.09002
1608.51,-0.0904
1608.52,-0.09018
1608.53,-0.09048
1608.54,-0.09032
1608.55,-0.09066
1608.56,-0.08987
1608.57,-0.09046
1608.58,-0.0903
1608.59,-0.09052
1608.6,-0.09006
1608.61,-0.09079
1608.62,-0.09033
1608.63,-0.09015
1608.64,-0.09067
1608.65,-0.09029
1608.66,-0.09033
1608.67,-0.09089
1608.68,-0.09007
1608.69,-0.08983
1608.7,-0.09021
1608.71,-0.09074
1608.72,-0.09039
1608.73,-0.09004
1608.74,-0.0907
1608.75,-0.0901
1608.76,-0.09109
1608.77,-0.09015
1608.78,-0.09053
1608.79,-0.09079
1608.8,-0.09047
1608.81,-0.09016
1608.82,-0.09085
1608.83,-0.09059
1608.84,-0.09032
1608.85,-0.09073
1608.86,-0.09043
1608.87,-0.09086
1608.88,-0.09038
1608.89,-0.09099
1608.9,-0.0902
1608.91,-0.09031
1608.92,-0.09055
1608.93,-0.09006
1608.94,-0.09033
1608.95,-0.09101
1608.96,-0.0903
1608.97,-0.09078
1608.98,-0.09102
1608.99,-0.09085
1609,-0.09014
1609.01,-0.09057
1609.02,-0.09087
1609.03,-0.09007
1609.04,-0.091
1609.05,-0.0901
1609.06,-0.09055
1609.07,-0.09022
1609.08,-0.09092
1609.09,-0.09031
1609.1,-0.0915
1609.11,-0.09103
1609.12,-0.09095
1609.13,-0.09032
1609.14,-0.09051
1609.15,-0.09046
1609.16,-0.09096
1609.17,-0.09096
1609.18,-0.09065
1609.19,-0.09061
1609.2,-0.0904
1609.21,-0.09121
1609.22,-0.09041
1609.23,-0.09134
1609.24,-0.09041
1609.25,-0.09114
1609.26,-0.0909
1609.27,-0.09087
1609.28,-0.09127
1609.29,-0.09043
1609.3,-0.09123
1609.31,-0.09039
1609.32,-0.09113
1609.33,-0.0912
1609.34,-0.09132
1609.35,-0.09038
1609.36,-0.09133
1609.37,-0.09082
1609.38,-0.09089
1609.39,-0.09077
1609.4,-0.09153
1609.41,-0.09124
1609.42,-0.09131
1609.43,-0.09101
1609.44,-0.09055
1609.45,-0.09152
1609.46,-0.09089
1609.47,-0.09148
1609.48,-0.09076
1609.49,-0.09135
1609.5,-0.0911
1609.51,-0.09105
1609.52,-0.09101
1609.53,-0.09068
1609.54,-0.09126
1609.55,-0.09111
1609.56,-0.0913
1609.57,-0.09098
1609.58,-0.09116
1609.59,-0.09145
1609.6,-0.0911
1609.61,-0.0907
1609.62,-0.09121
1609.63,-0.0915
1609.64,-0.09104
1609.65,-0.09159
1609.66,-0.09051
1609.67,-0.09068
1609.68,-0.09161
1609.69,-0.09132
1609.7,-0.09132
1609.71,-0.09128
1609.72,-0.09132
1609.73,-0.09121
1609.74,-0.09111
1609.75,-0.09142
1609.76,-0.09146
1609.77,-0.09153
1609.78,-0.09108
1609.79,-0.0913
1609.8,-0.09092
1609.81,-0.09175
1609.82,-0.09132
1609.83,-0.09163
1609.84,-0.09114
1609.85,-0.09143
1609.86,-0.09138
1609.87,-0.09127
1609.88,-0.09116
1609.89,-0.09158
1609.9,-0.09174
1609.91,-0.09094
1609.92,-0.09107
1609.93,-0.0912
1609.94,-0.09205
1609.95,-0.09135
1609.96,-0.09073
1609.97,-0.09246
1609.98,-0.09118
1609.99,-0.09214
1610,-0.09064
1610.01,-0.0918
1610.02,-0.09135
1610.03,-0.09143
1610.04,-0.09153
1610.05,-0.09138
1610.06,-0.09159
1610.07,-0.09123
1610.08,-0.09124
1610.09,-0.09176
1610.1,-0.09154
1610.11,-0.09155
1610.12,-0.09157
1610.13,-0.09138
1610.14,-0.09142
1610.15,-0.09155
1610.16,-0.09143
1610.17,-0.09157
1610.18,-0.09149
1610.19,-0.09193
1610.2,-0.09214
1610.21,-0.09143
1610.22,-0.09187
1610.23,-0.09156
1610.24,-0.09198
1610.25,-0.09125
1610.26,-0.09167
1610.27,-0.0917
1610.28,-0.09237
1610.29,-0.09181
1610.3,-0.09185
1610.31,-0.09176
1610.32,-0.09245
1610.33,-0.092
1610.34,-0.09221
1610.35,-0.09177
1610.36,-0.09195
1610.37,-0.0921
1610.38,-0.09205
1610.39,-0.09188
1610.4,-0.09205
1610.41,-0.09217
1610.42,-0.09226
1610.43,-0.09248
1610.44,-0.0921
1610.45,-0.09228
1610.46,-0.09227
1610.47,-0.09225
1610.48,-0.09191
1610.49,-0.09269
1610.5,-0.09244
1610.51,-0.09341
1610.52,-0.0926
1610.53,-0.09231
1610.54,-0.09209
1610.55,-0.09252
1610.56,-0.09283
1610.57,-0.09263
1610.58,-0.09264
1610.59,-0.0925
1610.6,-0.0924
1610.61,-0.0926
1610.62,-0.09213
1610.63,-0.09266
1610.64,-0.09269
1610.65,-0.09294
1610.66,-0.09279
1610.67,-0.09261
1610.68,-0.09251
1610.69,-0.09269
1610.7,-0.09209
1610.71,-0.09294
1610.72,-0.09237
1610.73,-0.0922
1610.74,-0.09252
1610.75,-0.09222
1610.76,-0.09263
1610.77,-0.093
1610.78,-0.09264
1610.79,-0.09235
1610.8,-0.09245
1610.81,-0.0929
1610.82,-0.0924
1610.83,-0.09244
1610.84,-0.09273
1610.85,-0.09227
1610.86,-0.0929
1610.87,-0.09235
1610.88,-0.09272
1610.89,-0.09301
1610.9,-0.09271
1610.91,-0.09245
1610.92,-0.09291
1610.93,-0.09231
1610.94,-0.09277
1610.95,-0.0928
1610.96,-0.09292
1610.97,-0.09212
1610.98,-0.09242
1610.99,-0.09284
1611,-0.09246
