3/04/2024,1:55:00 PM
Software,STS IL/PDL,IL,Normal,1.3.3.0
TSL,SANTEC,TSL-570,23020004,0022.0017.0009
PowerMeter,SANTEC,MPM-210H,23020023,Ver.1.19
,Module0,MPM-211,23020025M211,Ver.1.22
Power Monitor,DAQ
Start,1600,nm
Stop,1680,nm
Step,0.01,nm
Speed,20,nm/s
Source Power,10,dBm
Averaging Time,0.5,msec
Power meter range,23020025M211,(Ch1),-30～+10dBm,-40～ 0dBm
--HEADER END--
--DATA START--
Wavelength(nm),IL_M1_S0_CH1
1600,-0.11886
1600.01,-0.11972
1600.02,-0.11934
1600.03,-0.11972
1600.04,-0.11888
1600.05,-0.11834
1600.06,-0.11912
1600.07,-0.11851
1600.08,-0.11874
1600.09,-0.1186
1600.1,-0.11903
1600.11,-0.11899
1600.12,-0.11934
1600.13,-0.11889
1600.14,-0.11907
1600.15,-0.11885
1600.16,-0.1185
1600.17,-0.1183
1600.18,-0.1183
1600.19,-0.11913
1600.2,-0.11865
1600.21,-0.1188
1600.22,-0.1189
1600.23,-0.11901
1600.24,-0.11878
1600.25,-0.11961
1600.26,-0.11845
1600.27,-0.11875
1600.28,-0.11877
1600.29,-0.11856
1600.3,-0.11862
1600.31,-0.11899
1600.32,-0.11878
1600.33,-0.11913
1600.34,-0.11936
1600.35,-0.11894
1600.36,-0.11878
1600.37,-0.11865
1600.38,-0.11878
1600.39,-0.11831
1600.4,-0.11865
1600.41,-0.11861
1600.42,-0.11878
1600.43,-0.11933
1600.44,-0.11859
1600.45,-0.11888
1600.46,-0.11862
1600.47,-0.11867
1600.48,-0.11848
1600.49,-0.11876
1600.5,-0.11826
1600.51,-0.11806
1600.52,-0.11848
1600.53,-0.11839
1600.54,-0.11821
1600.55,-0.11868
1600.56,-0.11899
1600.57,-0.11829
1600.58,-0.11887
1600.59,-0.11903
1600.6,-0.11821
1600.61,-0.11802
1600.62,-0.11804
1600.63,-0.11789
1600.64,-0.11809
1600.65,-0.11805
1600.66,-0.118
1600.67,-0.1187
1600.68,-0.11862
1600.69,-0.11866
1600.7,-0.11806
1600.71,-0.11878
1600.72,-0.11724
1600.73,-0.11814
1600.74,-0.11764
1600.75,-0.11777
1600.76,-0.11782
1600.77,-0.11809
1600.78,-0.11859
1600.79,-0.11826
1600.8,-0.11837
1600.81,-0.11779
1600.82,-0.11794
1600.83,-0.11754
1600.84,-0.11776
1600.85,-0.11768
1600.86,-0.11745
1600.87,-0.11751
1600.88,-0.11778
1600.89,-0.11806
1600.9,-0.1181
1600.91,-0.11868
1600.92,-0.11858
1600.93,-0.11763
1600.94,-0.11787
1600.95,-0.11813
1600.96,-0.11818
1600.97,-0.11774
1600.98,-0.11834
1600.99,-0.11784
1601,-0.11827
1601.01,-0.11842
1601.02,-0.11842
1601.03,-0.11901
1601.04,-0.11856
1601.05,-0.11797
1601.06,-0.11826
1601.07,-0.11801
1601.08,-0.1182
1601.09,-0.11811
1601.1,-0.11862
1601.11,-0.11889
1601.12,-0.11882
1601.13,-0.11928
1601.14,-0.119
1601.15,-0.11874
1601.16,-0.11862
1601.17,-0.1186
1601.18,-0.11841
1601.19,-0.11863
1601.2,-0.11943
1601.21,-0.11795
1601.22,-0.1197
1601.23,-0.11933
1601.24,-0.11935
1601.25,-0.11939
1601.26,-0.11891
1601.27,-0.11957
1601.28,-0.11863
1601.29,-0.11868
1601.3,-0.11902
1601.31,-0.11873
1601.32,-0.119
1601.33,-0.11975
1601.34,-0.11935
1601.35,-0.11905
1601.36,-0.11967
1601.37,-0.11944
1601.38,-0.11888
1601.39,-0.11851
1601.4,-0.11902
1601.41,-0.11879
1601.42,-0.11836
1601.43,-0.11896
1601.44,-0.11904
1601.45,-0.11912
1601.46,-0.11966
1601.47,-0.11986
1601.48,-0.11982
1601.49,-0.11912
1601.5,-0.1186
1601.51,-0.11916
1601.52,-0.11839
1601.53,-0.11897
1601.54,-0.11853
1601.55,-0.11936
1601.56,-0.11909
1601.57,-0.11959
1601.58,-0.11865
1601.59,-0.11949
1601.6,-0.11875
1601.61,-0.11877
1601.62,-0.11839
1601.63,-0.118
1601.64,-0.11878
1601.65,-0.11847
1601.66,-0.11873
1601.67,-0.11865
1601.68,-0.11892
1601.69,-0.11891
1601.7,-0.11903
1601.71,-0.11853
1601.72,-0.11879
1601.73,-0.11811
1601.74,-0.11836
1601.75,-0.1175
1601.76,-0.11804
1601.77,-0.11841
1601.78,-0.11877
1601.79,-0.11816
1601.8,-0.1187
1601.81,-0.11887
1601.82,-0.11828
1601.83,-0.11822
1601.84,-0.11804
1601.85,-0.11841
1601.86,-0.11728
1601.87,-0.11784
1601.88,-0.1177
1601.89,-0.11835
1601.9,-0.11785
1601.91,-0.11851
1601.92,-0.11823
1601.93,-0.11856
1601.94,-0.11735
1601.95,-0.11817
1601.96,-0.11791
1601.97,-0.11739
1601.98,-0.11758
1601.99,-0.11729
1602,-0.11817
1602.01,-0.11789
1602.02,-0.11787
1602.03,-0.11809
1602.04,-0.11828
1602.05,-0.11764
1602.06,-0.11797
1602.07,-0.11793
1602.08,-0.11743
1602.09,-0.11824
1602.1,-0.118
1602.11,-0.11801
1602.12,-0.11839
1602.13,-0.1181
1602.14,-0.11828
1602.15,-0.11876
1602.16,-0.11882
1602.17,-0.1182
1602.18,-0.11763
1602.19,-0.11801
1602.2,-0.11854
1602.21,-0.11856
1602.22,-0.11868
1602.23,-0.11897
1602.24,-0.11862
1602.25,-0.11963
1602.26,-0.11883
1602.27,-0.11859
1602.28,-0.11891
1602.29,-0.11894
1602.3,-0.11864
1602.31,-0.11936
1602.32,-0.1188
1602.33,-0.11908
1602.34,-0.11992
1602.35,-0.11944
1602.36,-0.11927
1602.37,-0.11975
1602.38,-0.1198
1602.39,-0.11975
1602.4,-0.11949
1602.41,-0.11949
1602.42,-0.11927
1602.43,-0.11962
1602.44,-0.11982
1602.45,-0.12017
1602.46,-0.11959
1602.47,-0.12099
1602.48,-0.1201
1602.49,-0.11998
1602.5,-0.11965
1602.51,-0.12004
1602.52,-0.12027
1602.53,-0.11921
1602.54,-0.12046
1602.55,-0.11978
1602.56,-0.12012
1602.57,-0.12084
1602.58,-0.12066
1602.59,-0.12072
1602.6,-0.12095
1602.61,-0.12033
1602.62,-0.12048
1602.63,-0.12033
1602.64,-0.12011
1602.65,-0.12045
1602.66,-0.12038
1602.67,-0.12026
1602.68,-0.12113
1602.69,-0.1214
1602.7,-0.12075
1602.71,-0.12107
1602.72,-0.12053
1602.73,-0.12105
1602.74,-0.12049
1602.75,-0.12063
1602.76,-0.12066
1602.77,-0.12017
1602.78,-0.12068
1602.79,-0.12066
1602.8,-0.12131
1602.81,-0.12083
1602.82,-0.12124
1602.83,-0.12089
1602.84,-0.12062
1602.85,-0.12028
1602.86,-0.12062
1602.87,-0.12012
1602.88,-0.12066
1602.89,-0.1212
1602.9,-0.12063
1602.91,-0.12055
1602.92,-0.12115
1602.93,-0.12081
1602.94,-0.12074
1602.95,-0.12031
1602.96,-0.12034
1602.97,-0.12063
1602.98,-0.11982
1602.99,-0.12043
1603,-0.12037
1603.01,-0.12073
1603.02,-0.12033
1603.03,-0.12095
1603.04,-0.12029
1603.05,-0.12039
1603.06,-0.12001
1603.07,-0.12007
1603.08,-0.11992
1603.09,-0.11939
1603.1,-0.1203
1603.11,-0.12033
1603.12,-0.11999
1603.13,-0.1205
1603.14,-0.12026
1603.15,-0.12089
1603.16,-0.12029
1603.17,-0.11992
1603.18,-0.12026
1603.19,-0.11961
1603.2,-0.11992
1603.21,-0.11998
1603.22,-0.11982
1603.23,-0.11996
1603.24,-0.12001
1603.25,-0.12024
1603.26,-0.12051
1603.27,-0.12039
1603.28,-0.12049
1603.29,-0.11962
1603.3,-0.1199
1603.31,-0.11978
1603.32,-0.11974
1603.33,-0.11992
1603.34,-0.1207
1603.35,-0.12029
1603.36,-0.12046
1603.37,-0.11992
1603.38,-0.12002
1603.39,-0.12059
1603.4,-0.11969
1603.41,-0.12039
1603.42,-0.11965
1603.43,-0.11972
1603.44,-0.12044
1603.45,-0.12097
1603.46,-0.11912
1603.47,-0.12112
1603.48,-0.12116
1603.49,-0.121
1603.5,-0.1205
1603.51,-0.12083
1603.52,-0.12055
1603.53,-0.1201
1603.54,-0.11985
1603.55,-0.12001
1603.56,-0.12104
1603.57,-0.12062
1603.58,-0.12077
1603.59,-0.12121
1603.6,-0.12071
1603.61,-0.12067
1603.62,-0.12045
1603.63,-0.11999
1603.64,-0.11985
1603.65,-0.12077
1603.66,-0.1205
1603.67,-0.12058
1603.68,-0.12024
1603.69,-0.12109
1603.7,-0.12085
1603.71,-0.12151
1603.72,-0.12037
1603.73,-0.12035
1603.74,-0.1205
1603.75,-0.1203
1603.76,-0.12065
1603.77,-0.12
1603.78,-0.12085
1603.79,-0.12034
1603.8,-0.12084
1603.81,-0.12104
1603.82,-0.12095
1603.83,-0.12066
1603.84,-0.12092
1603.85,-0.12029
1603.86,-0.12037
1603.87,-0.11983
1603.88,-0.12059
1603.89,-0.12102
1603.9,-0.12089
1603.91,-0.12112
1603.92,-0.12069
1603.93,-0.12078
1603.94,-0.12078
1603.95,-0.12046
1603.96,-0.12088
1603.97,-0.12027
1603.98,-0.12092
1603.99,-0.12042
1604,-0.12044
1604.01,-0.12042
1604.02,-0.12091
1604.03,-0.12094
1604.04,-0.12097
1604.05,-0.12107
1604.06,-0.12018
1604.07,-0.12109
1604.08,-0.12031
1604.09,-0.1202
1604.1,-0.1207
1604.11,-0.12054
1604.12,-0.12043
1604.13,-0.1208
1604.14,-0.12108
1604.15,-0.12096
1604.16,-0.12052
1604.17,-0.12036
1604.18,-0.12077
1604.19,-0.12036
1604.2,-0.12055
1604.21,-0.12014
1604.22,-0.12039
1604.23,-0.12026
1604.24,-0.12048
1604.25,-0.12077
1604.26,-0.1206
1604.27,-0.12058
1604.28,-0.12085
1604.29,-0.12043
1604.3,-0.12053
1604.31,-0.12086
1604.32,-0.12017
1604.33,-0.12106
1604.34,-0.12042
1604.35,-0.12042
1604.36,-0.12111
1604.37,-0.12123
1604.38,-0.12103
1604.39,-0.12083
1604.4,-0.12096
1604.41,-0.12008
1604.42,-0.12026
1604.43,-0.12044
1604.44,-0.12039
1604.45,-0.12011
1604.46,-0.12049
1604.47,-0.12037
1604.48,-0.12065
1604.49,-0.12099
1604.5,-0.12133
1604.51,-0.12037
1604.52,-0.12044
1604.53,-0.1204
1604.54,-0.12032
1604.55,-0.12037
1604.56,-0.12057
1604.57,-0.12043
1604.58,-0.12115
1604.59,-0.1205
1604.6,-0.12107
1604.61,-0.12062
1604.62,-0.12028
1604.63,-0.11954
1604.64,-0.12034
1604.65,-0.11991
1604.66,-0.12008
1604.67,-0.12062
1604.68,-0.12023
1604.69,-0.12091
1604.7,-0.12069
1604.71,-0.12083
1604.72,-0.12073
1604.73,-0.12035
1604.74,-0.12009
1604.75,-0.11998
1604.76,-0.11978
1604.77,-0.11995
1604.78,-0.11936
1604.79,-0.12046
1604.8,-0.12023
1604.81,-0.12034
1604.82,-0.12053
1604.83,-0.12028
1604.84,-0.12019
1604.85,-0.12042
1604.86,-0.12011
1604.87,-0.11978
1604.88,-0.11984
1604.89,-0.1196
1604.9,-0.11959
1604.91,-0.1202
1604.92,-0.12047
1604.93,-0.12036
1604.94,-0.12045
1604.95,-0.12045
1604.96,-0.1205
1604.97,-0.11938
1604.98,-0.11959
1604.99,-0.11967
1605,-0.12
1605.01,-0.11964
1605.02,-0.12018
1605.03,-0.11995
1605.04,-0.12035
1605.05,-0.12051
1605.06,-0.12058
1605.07,-0.12082
1605.08,-0.1193
1605.09,-0.12033
1605.1,-0.11895
1605.11,-0.11977
1605.12,-0.11984
1605.13,-0.11992
1605.14,-0.12037
1605.15,-0.11998
1605.16,-0.12003
1605.17,-0.11999
1605.18,-0.11981
1605.19,-0.12003
1605.2,-0.11957
1605.21,-0.11893
1605.22,-0.12041
1605.23,-0.11964
1605.24,-0.11964
1605.25,-0.1199
1605.26,-0.12034
1605.27,-0.12003
1605.28,-0.12029
1605.29,-0.11969
1605.3,-0.12011
1605.31,-0.11954
1605.32,-0.11952
1605.33,-0.11958
1605.34,-0.11987
1605.35,-0.11949
1605.36,-0.12034
1605.37,-0.11996
1605.38,-0.12026
1605.39,-0.12005
1605.4,-0.12008
1605.41,-0.11973
1605.42,-0.1194
1605.43,-0.11978
1605.44,-0.11964
1605.45,-0.1197
1605.46,-0.11975
1605.47,-0.12021
1605.48,-0.11986
1605.49,-0.12064
1605.5,-0.11996
1605.51,-0.12123
1605.52,-0.11999
1605.53,-0.12059
1605.54,-0.12008
1605.55,-0.11976
1605.56,-0.12048
1605.57,-0.11986
1605.58,-0.12075
1605.59,-0.12073
1605.6,-0.12055
1605.61,-0.12104
1605.62,-0.12109
1605.63,-0.12035
1605.64,-0.12025
1605.65,-0.12034
1605.66,-0.12029
1605.67,-0.12073
1605.68,-0.12095
1605.69,-0.12064
1605.7,-0.12075
1605.71,-0.12106
1605.72,-0.1209
1605.73,-0.12112
1605.74,-0.12137
1605.75,-0.12145
1605.76,-0.1207
1605.77,-0.12041
1605.78,-0.12131
1605.79,-0.12074
1605.8,-0.1207
1605.81,-0.12127
1605.82,-0.12163
1605.83,-0.12122
1605.84,-0.12151
1605.85,-0.12068
1605.86,-0.12134
1605.87,-0.12099
1605.88,-0.12085
1605.89,-0.12069
1605.9,-0.12079
1605.91,-0.1209
1605.92,-0.12108
1605.93,-0.12145
1605.94,-0.12143
1605.95,-0.12208
1605.96,-0.12172
1605.97,-0.12102
1605.98,-0.12091
1605.99,-0.12052
1606,-0.12157
1606.01,-0.1214
1606.02,-0.12118
1606.03,-0.12186
1606.04,-0.12191
1606.05,-0.12168
1606.06,-0.12159
1606.07,-0.12159
1606.08,-0.12151
1606.09,-0.12164
1606.1,-0.12121
1606.11,-0.121
1606.12,-0.12104
1606.13,-0.1214
1606.14,-0.12123
1606.15,-0.12169
1606.16,-0.12155
1606.17,-0.12247
1606.18,-0.1212
1606.19,-0.12158
1606.2,-0.12158
1606.21,-0.12108
1606.22,-0.12145
1606.23,-0.12119
1606.24,-0.12124
1606.25,-0.12122
1606.26,-0.12154
1606.27,-0.12169
1606.28,-0.12133
1606.29,-0.12166
1606.3,-0.12143
1606.31,-0.12109
1606.32,-0.12132
1606.33,-0.12137
1606.34,-0.12104
1606.35,-0.12103
1606.36,-0.12116
1606.37,-0.12086
1606.38,-0.12148
1606.39,-0.12168
1606.4,-0.12128
1606.41,-0.12146
1606.42,-0.12093
1606.43,-0.12086
1606.44,-0.12103
1606.45,-0.1212
1606.46,-0.1215
1606.47,-0.12062
1606.48,-0.12138
1606.49,-0.12158
1606.5,-0.12156
1606.51,-0.12132
1606.52,-0.12167
1606.53,-0.12096
1606.54,-0.12109
1606.55,-0.12128
1606.56,-0.12125
1606.57,-0.12134
1606.58,-0.12185
1606.59,-0.12176
1606.6,-0.12168
1606.61,-0.12159
1606.62,-0.12155
1606.63,-0.12155
1606.64,-0.12163
1606.65,-0.12161
1606.66,-0.12137
1606.67,-0.12167
1606.68,-0.12172
1606.69,-0.12171
1606.7,-0.12205
1606.71,-0.12215
1606.72,-0.12174
1606.73,-0.12264
1606.74,-0.12236
1606.75,-0.12207
1606.76,-0.12195
1606.77,-0.12167
1606.78,-0.12187
1606.79,-0.12192
1606.8,-0.12215
1606.81,-0.1222
1606.82,-0.12266
1606.83,-0.12306
1606.84,-0.12222
1606.85,-0.12254
1606.86,-0.12207
1606.87,-0.12258
1606.88,-0.12213
1606.89,-0.12197
1606.9,-0.12277
1606.91,-0.12223
1606.92,-0.12275
1606.93,-0.12268
1606.94,-0.12279
1606.95,-0.1231
1606.96,-0.12348
1606.97,-0.1227
1606.98,-0.12274
1606.99,-0.12256
1607,-0.12262
1607.01,-0.12214
1607.02,-0.12312
1607.03,-0.12258
1607.04,-0.12298
1607.05,-0.12318
1607.06,-0.12279
1607.07,-0.12359
1607.08,-0.12233
1607.09,-0.12338
1607.1,-0.12252
1607.11,-0.12266
1607.12,-0.12249
1607.13,-0.12302
1607.14,-0.12274
1607.15,-0.12284
1607.16,-0.12314
1607.17,-0.12335
1607.18,-0.12338
1607.19,-0.12343
1607.2,-0.12338
1607.21,-0.12264
1607.22,-0.12281
1607.23,-0.12311
1607.24,-0.12263
1607.25,-0.12302
1607.26,-0.12256
1607.27,-0.12316
1607.28,-0.12344
1607.29,-0.12318
1607.3,-0.12265
1607.31,-0.12264
1607.32,-0.12274
1607.33,-0.12236
1607.34,-0.12221
1607.35,-0.12269
1607.36,-0.12263
1607.37,-0.12253
1607.38,-0.12273
1607.39,-0.12274
1607.4,-0.12308
1607.41,-0.12244
1607.42,-0.12263
1607.43,-0.12216
1607.44,-0.12229
1607.45,-0.12213
1607.46,-0.12236
1607.47,-0.12178
1607.48,-0.12294
1607.49,-0.12287
1607.5,-0.12199
1607.51,-0.12307
1607.52,-0.12273
1607.53,-0.12219
1607.54,-0.12203
1607.55,-0.12172
1607.56,-0.12208
1607.57,-0.12154
1607.58,-0.12249
1607.59,-0.12167
1607.6,-0.12207
1607.61,-0.12224
1607.62,-0.12234
1607.63,-0.12153
1607.64,-0.12272
1607.65,-0.12157
1607.66,-0.12136
1607.67,-0.12209
1607.68,-0.12137
1607.69,-0.12214
1607.7,-0.12153
1607.71,-0.12264
1607.72,-0.12224
1607.73,-0.12232
1607.74,-0.12226
1607.75,-0.12206
1607.76,-0.12228
1607.77,-0.12137
1607.78,-0.1215
1607.79,-0.12207
1607.8,-0.12152
1607.81,-0.1218
1607.82,-0.12237
1607.83,-0.12258
1607.84,-0.12201
1607.85,-0.12235
1607.86,-0.1228
1607.87,-0.12181
1607.88,-0.12225
1607.89,-0.12179
1607.9,-0.12212
1607.91,-0.122
1607.92,-0.12188
1607.93,-0.12225
1607.94,-0.12248
1607.95,-0.12271
1607.96,-0.12272
1607.97,-0.12253
1607.98,-0.12275
1607.99,-0.12221
1608,-0.12272
1608.01,-0.12213
1608.02,-0.12236
1608.03,-0.12249
1608.04,-0.12228
1608.05,-0.12314
1608.06,-0.1229
1608.07,-0.12304
1608.08,-0.12308
1608.09,-0.1226
1608.1,-0.12256
1608.11,-0.12231
1608.12,-0.12275
1608.13,-0.12259
1608.14,-0.12253
1608.15,-0.12249
1608.16,-0.12296
1608.17,-0.12329
1608.18,-0.12328
1608.19,-0.12308
1608.2,-0.12294
1608.21,-0.12297
1608.22,-0.12292
1608.23,-0.12276
1608.24,-0.123
1608.25,-0.12338
1608.26,-0.12253
1608.27,-0.12311
1608.28,-0.12365
1608.29,-0.1229
1608.3,-0.12354
1608.31,-0.12346
1608.32,-0.12311
1608.33,-0.12329
1608.34,-0.12264
1608.35,-0.12398
1608.36,-0.12283
1608.37,-0.12316
1608.38,-0.12336
1608.39,-0.12343
1608.4,-0.12341
1608.41,-0.12359
1608.42,-0.12304
1608.43,-0.12263
1608.44,-0.12318
1608.45,-0.12282
1608.46,-0.12277
1608.47,-0.12244
1608.48,-0.12356
1608.49,-0.12284
1608.5,-0.123
1608.51,-0.12351
1608.52,-0.12312
1608.53,-0.12308
1608.54,-0.1226
1608.55,-0.12265
1608.56,-0.1222
1608.57,-0.12223
1608.58,-0.12245
1608.59,-0.12307
1608.6,-0.12293
1608.61,-0.12312
1608.62,-0.12284
1608.63,-0.12298
1608.64,-0.12273
1608.65,-0.12257
1608.66,-0.12241
1608.67,-0.12226
1608.68,-0.12243
1608.69,-0.12232
1608.7,-0.12178
1608.71,-0.1226
1608.72,-0.12334
1608.73,-0.12188
1608.74,-0.12262
1608.75,-0.12227
1608.76,-0.12243
1608.77,-0.12216
1608.78,-0.12205
1608.79,-0.1221
1608.8,-0.12221
1608.81,-0.12191
1608.82,-0.12227
1608.83,-0.12238
1608.84,-0.12195
1608.85,-0.12262
1608.86,-0.12212
1608.87,-0.12257
1608.88,-0.12207
1608.89,-0.12189
1608.9,-0.12158
1608.91,-0.1216
1608.92,-0.12204
1608.93,-0.12125
1608.94,-0.12187
1608.95,-0.12221
1608.96,-0.12206
1608.97,-0.12227
1608.98,-0.12225
1608.99,-0.12225
1609,-0.12177
1609.01,-0.12193
1609.02,-0.12204
1609.03,-0.12177
1609.04,-0.12179
1609.05,-0.12224
1609.06,-0.12218
1609.07,-0.12232
1609.08,-0.12285
1609.09,-0.12228
1609.1,-0.12253
1609.11,-0.12193
1609.12,-0.12162
1609.13,-0.12222
1609.14,-0.12165
1609.15,-0.12203
1609.16,-0.12285
1609.17,-0.1226
1609.18,-0.12275
1609.19,-0.1224
1609.2,-0.12245
1609.21,-0.12244
1609.22,-0.12165
1609.23,-0.12259
1609.24,-0.12245
1609.25,-0.12256
1609.26,-0.12252
1609.27,-0.12197
1609.28,-0.12281
1609.29,-0.12251
1609.3,-0.12302
1609.31,-0.12302
1609.32,-0.12259
1609.33,-0.12272
1609.34,-0.12271
1609.35,-0.1224
1609.36,-0.12266
1609.37,-0.12254
1609.38,-0.12272
1609.39,-0.12263
1609.4,-0.12334
1609.41,-0.12349
1609.42,-0.12313
1609.43,-0.12326
1609.44,-0.12279
1609.45,-0.12271
1609.46,-0.12317
1609.47,-0.12273
1609.48,-0.12325
1609.49,-0.12294
1609.5,-0.12311
1609.51,-0.12315
1609.52,-0.12322
1609.53,-0.12324
1609.54,-0.12369
1609.55,-0.12312
1609.56,-0.12265
1609.57,-0.12319
1609.58,-0.12258
1609.59,-0.12342
1609.6,-0.12341
1609.61,-0.12333
1609.62,-0.12373
1609.63,-0.12364
1609.64,-0.12352
1609.65,-0.12306
1609.66,-0.12319
1609.67,-0.12276
1609.68,-0.1234
1609.69,-0.12302
1609.7,-0.12317
1609.71,-0.12342
1609.72,-0.12328
1609.73,-0.12354
1609.74,-0.12368
1609.75,-0.12386
1609.76,-0.12363
1609.77,-0.12352
1609.78,-0.12308
1609.79,-0.12362
1609.8,-0.12288
1609.81,-0.1235
1609.82,-0.12337
1609.83,-0.12339
1609.84,-0.12382
1609.85,-0.12411
1609.86,-0.12358
1609.87,-0.12348
1609.88,-0.12382
1609.89,-0.12336
1609.9,-0.12298
1609.91,-0.12349
1609.92,-0.12332
1609.93,-0.12373
1609.94,-0.12363
1609.95,-0.12373
1609.96,-0.12277
1609.97,-0.12534
1609.98,-0.12343
1609.99,-0.12326
1610,-0.12312
1610.01,-0.12323
1610.02,-0.12308
1610.03,-0.12336
1610.04,-0.12376
1610.05,-0.12363
1610.06,-0.12363
1610.07,-0.12399
1610.08,-0.12396
1610.09,-0.12446
1610.1,-0.1238
1610.11,-0.12364
1610.12,-0.12343
1610.13,-0.12384
1610.14,-0.12337
1610.15,-0.12341
1610.16,-0.124
1610.17,-0.12383
1610.18,-0.1238
1610.19,-0.12442
1610.2,-0.12442
1610.21,-0.12372
1610.22,-0.12394
1610.23,-0.12352
1610.24,-0.12413
1610.25,-0.12374
1610.26,-0.1239
1610.27,-0.12382
1610.28,-0.12444
1610.29,-0.1242
1610.3,-0.12452
1610.31,-0.12456
1610.32,-0.12412
1610.33,-0.1239
1610.34,-0.12487
1610.35,-0.12403
1610.36,-0.12367
1610.37,-0.12408
1610.38,-0.12425
1610.39,-0.12417
1610.4,-0.12423
1610.41,-0.12448
1610.42,-0.12497
1610.43,-0.1247
1610.44,-0.12408
1610.45,-0.12421
1610.46,-0.12381
1610.47,-0.12398
1610.48,-0.12348
1610.49,-0.12496
1610.5,-0.12439
1610.51,-0.12463
1610.52,-0.12396
1610.53,-0.12451
1610.54,-0.12428
1610.55,-0.12479
1610.56,-0.12451
1610.57,-0.12407
1610.58,-0.12404
1610.59,-0.12401
1610.6,-0.12435
1610.61,-0.12446
1610.62,-0.12447
1610.63,-0.12459
1610.64,-0.12426
1610.65,-0.12485
1610.66,-0.12447
1610.67,-0.12426
1610.68,-0.1244
1610.69,-0.12389
1610.7,-0.12379
1610.71,-0.12431
1610.72,-0.12411
1610.73,-0.12421
1610.74,-0.12461
1610.75,-0.12441
1610.76,-0.12456
1610.77,-0.12422
1610.78,-0.12425
1610.79,-0.12388
1610.8,-0.1242
1610.81,-0.12416
1610.82,-0.12393
1610.83,-0.12397
1610.84,-0.12457
1610.85,-0.12395
1610.86,-0.12449
1610.87,-0.12391
1610.88,-0.12403
1610.89,-0.12433
1610.9,-0.12415
1610.91,-0.12395
1610.92,-0.12434
1610.93,-0.1236
1610.94,-0.12398
1610.95,-0.12365
1610.96,-0.12401
1610.97,-0.12386
1610.98,-0.12446
1610.99,-0.12439
